File: table.csv
,Carbon concentration / (weight%),Silicon concentration / (weight%),Manganese concentration / (weight%),Sulphur concentration / (weight%),Phosphorus concentration / (weight%),Nickel concentration / (weight%),Chromium concentration / (weight%),Molybdenum concentration / (weight%),Vanadium concentration / (weight%),Copper concentration / (weight%),Cobalt concentration / (weight%),Tungsten concentration / (weight%),Oxygen concentration / parts per million by weight,Titanium concentration / parts per million by weight,Nitrogen concentration / parts per million by weight,Aluminium concentration / parts per million by weight,Boron concentration / parts per million by weight,Niobium concentration / parts per million by weight,Tin concentration / parts per million by weight,Arsenic concentration / parts per million by weight,Antimony concentration / parts per million by weight,Current / A,Voltage / V,AC or DC,Electrode positive or negative,Heat input / kJmm-1,Interpass temperature / °C,Post weld heat treatment temperature / °C,Post weld heat treatment time / hours,Yield strength / MPa,Ultimate tensile strength / MPa,Elongation / %,Reduction of Area / %,Charpy temperature / °C,Charpy impact toughness / J,Hardness / kgmm-2,50% FATT,Primary ferrite in microstructure / %,Ferrite with second phase / %,Acicular ferrite / %,Martensite / %,Ferrite with carbide aggreagate / %,Type of weld_FCA,Type of weld_GMAA,Type of weld_GTAA,Type of weld_MMA,Type of weld_NGGMA,Type of weld_NGSAW,Type of weld_SA,Type of weld_SAA,Type of weld_ShMA,Type of weld_TSA
0,0.037,0.3,0.65,0.008,0.012,0.0,,,,,,,,,,,,,,,,170.0,21.0,1.0,1.0,1.0,200.0,250.0,14.0,392.0,466.0,31.9,80.6,,,,,,,,,,0.0,0.0,0.0,1.0,0.0,0.0,0.0,0.0,0.0,0.0
30,0.049,0.35,1.37,0.007,0.013,1.06,,,,,,,,,,,,,,,,170.0,21.0,1.0,1.0,1.0,200.0,580.0,2.0,470.0,557.0,30.2,76.0,-20.0,100.0,,,,,,,,0.0,0.0,0.0,1.0,0.0,0.0,0.0,0.0,0.0,0.0
60,0.075,0.36,1.48,0.007,0.006,,,,,0.11,,,390.0,40.0,,,,,,,,170.0,21.0,1.0,1.0,1.0,150.0,0.0,0.0,502.0,578.0,27.6,77.0,,,,,,,,,,0.0,0.0,0.0,1.0,0.0,0.0,0.0,0.0,0.0,0.0
90,0.081,0.48,1.42,0.004,0.006,,,,,,,,444.0,4.0,46.0,660.0,,,,,,170.0,21.0,1.0,1.0,1.0,200.0,250.0,14.0,466.0,551.0,26.2,78.9,,,,,,,,,,0.0,0.0,0.0,1.0,0.0,0.0,0.0,0.0,0.0,0.0
120,0.074,0.32,1.5,0.006,0.006,,,,,,,,375.0,99.0,89.0,8.0,,,,,,170.0,21.0,1.0,1.0,1.0,200.0,0.0,0.0,,,,,-52.0,100.0,,,,,,,,0.0,0.0,0.0,1.0,0.0,0.0,0.0,0.0,0.0,0.0
150,0.074,0.41,1.36,0.005,0.005,,,,,,,,418.0,260.0,49.0,320.0,,,,,,170.0,21.0,1.0,1.0,1.0,200.0,0.0,0.0,,,,,-47.0,100.0,,,,,,,,0.0,0.0,0.0,1.0,0.0,0.0,0.0,0.0,0.0,0.0
180,0.067,0.57,1.4,0.005,0.005,,,,,,,,451.0,450.0,60.0,500.0,,,,,,170.0,21.0,1.0,1.0,1.0,200.0,250.0,14.0,547.0,616.0,22.6,75.0,,,,,,,,,,0.0,0.0,0.0,1.0,0.0,0.0,0.0,0.0,0.0,0.0
210,0.086,0.2,1.04,0.008,0.013,,8.98,1.01,0.22,,,,567.0,,160.0,,36.0,560.0,,,,180.0,34.0,1.0,1.0,1.0,175.0,750.0,8.0,,,,,-1.0,50.0,,,,,,,,0.0,0.0,0.0,1.0,0.0,0.0,0.0,0.0,0.0,0.0
240,0.04,0.33,0.6,0.006,0.01,,0.51,,,,,,,,,,,,,,,170.0,21.0,1.0,1.0,1.0,200.0,0.0,0.0,,,,,-17.0,100.0,,,,,,,,0.0,0.0,0.0,1.0,0.0,0.0,0.0,0.0,0.0,0.0
270,0.05,0.31,1.29,0.008,0.011,,2.32,,,,,,,,,,,,,,,170.0,21.0,1.0,1.0,1.0,200.0,0.0,0.0,,,,,9.0,100.0,,,0.0,100.0,0.0,0.0,0.0,0.0,0.0,0.0,1.0,0.0,0.0,0.0,0.0,0.0,0.0
300,0.08,0.37,1.42,0.006,0.009,,,,3.62131e-05,,,,439.0,43.0,,120.0,4.94954,2.20974,,,,170.0,21.0,1.0,1.0,1.0,200.0,0.0,0.0,,,,,-86.0,28.0,,,,,,,,0.0,0.0,0.0,1.0,0.0,0.0,0.0,0.0,0.0,0.0
330,0.079,0.57,1.32,0.004,0.008,,,,0.000256407,,,,422.0,38.0,,610.0,3.56315,3.79459,,,,170.0,21.0,1.0,1.0,1.0,200.0,580.0,2.0,443.0,550.0,29.4,76.0,,,,,,,,,,0.0,0.0,0.0,1.0,0.0,0.0,0.0,0.0,0.0,0.0
360,0.077,0.32,1.05,0.008,0.006,,,,0.085,,,,400.0,34.0,72.0,1.58412,4.73814,5.0,,,,170.0,21.0,1.0,1.0,1.0,200.0,250.0,14.0,538.0,592.0,25.2,74.0,,,,,,,,,,0.0,0.0,0.0,1.0,0.0,0.0,0.0,0.0,0.0,0.0
390,0.08,0.26,1.74,0.007,0.008,,,,0.083,,,,411.0,25.0,90.0,2.62159,0.980654,5.0,,,,170.0,21.0,1.0,1.0,1.0,200.0,250.0,14.0,639.0,681.0,19.6,71.9,,,,,,,,,,0.0,0.0,0.0,1.0,0.0,0.0,0.0,0.0,0.0,0.0
420,0.075,0.34,1.02,0.007,0.006,,,,0.0005,,,,417.0,37.0,79.0,2.25931,4.83831,985.0,,,,170.0,21.0,1.0,1.0,1.0,200.0,250.0,14.0,615.0,655.0,20.2,72.9,,,,,,,,,,0.0,0.0,0.0,1.0,0.0,0.0,0.0,0.0,0.0,0.0
450,0.079,0.29,1.79,0.006,0.007,,,,0.0004,,,,406.0,33.0,105.0,1.98678,3.66806,895.0,,,,170.0,21.0,1.0,1.0,1.0,200.0,250.0,14.0,654.0,708.0,19.2,70.8,,,,,,,,,,0.0,0.0,0.0,1.0,0.0,0.0,0.0,0.0,0.0,0.0
480,0.045,0.31,1.39,0.005,0.007,,,,,,,,,,,,,,,,,170.0,21.0,1.0,1.0,1.0,200.0,580.0,2.0,,,,,-70.0,38.0,,,,,,,,0.0,0.0,0.0,1.0,0.0,0.0,0.0,0.0,0.0,0.0
510,0.066,0.35,1.36,0.007,0.008,,,,,,,,,,,,,,,,,170.0,21.0,1.0,1.0,1.0,200.0,580.0,2.0,,,,,-40.0,165.0,,,,,,,,0.0,0.0,0.0,1.0,0.0,0.0,0.0,0.0,0.0,0.0
540,0.088,0.34,1.33,0.008,0.007,,,,,,,,,,,,,,,,,170.0,21.0,1.0,1.0,1.0,200.0,580.0,2.0,,,,,20.0,208.0,,,,,,,,0.0,0.0,0.0,1.0,0.0,0.0,0.0,0.0,0.0,0.0
570,0.145,0.35,1.76,0.006,0.007,,,,,,,,,,,,,,,,,170.0,21.0,1.0,1.0,1.0,200.0,580.0,2.0,,,,,-60.0,32.0,,,,,,,,0.0,0.0,0.0,1.0,0.0,0.0,0.0,0.0,0.0,0.0
600,0.068,0.35,1.51,0.006,0.006,,,,,,,,351.0,100.0,87.0,,,,,,,170.0,21.0,1.0,1.0,1.0,200.0,0.0,0.0,,,,,-66.0,28.0,,,,,,,,0.0,0.0,0.0,0.0,0.0,0.0,0.0,0.0,1.0,0.0
630,0.077,0.3,1.0,0.008,0.007,,,,0.000251694,,,,464.0,7.0,83.0,3.9867,4.15952,2.39507,,,,170.0,21.0,1.0,1.0,1.0,200.0,250.0,14.0,409.0,504.0,30.6,77.0,,,,,,,,,,0.0,0.0,0.0,1.0,0.0,0.0,0.0,0.0,0.0,0.0
660,0.077,0.28,1.79,0.007,0.006,,,,0.000403822,,,,439.0,7.0,82.0,4.68088,4.44096,2.74342,,,,170.0,21.0,1.0,1.0,1.0,200.0,250.0,14.0,458.0,568.0,28.6,76.0,,,,,,,,,,0.0,0.0,0.0,1.0,0.0,0.0,0.0,0.0,0.0,0.0
690,0.069,0.26,1.45,0.01,0.009,,,,,,,,391.0,29.0,226.0,,,,,,,170.0,21.0,1.0,1.0,1.0,200.0,0.0,0.0,492.0,581.0,25.8,77.9,,,,,,,,,,0.0,0.0,0.0,1.0,0.0,0.0,0.0,0.0,0.0,0.0
720,0.093,0.16,1.03,0.008,0.012,0.98,9.08,0.98,0.19,,0.0,0.0,651.0,,515.0,,,430.0,,,,180.0,34.0,1.0,1.0,1.0,175.0,750.0,8.0,551.0,751.0,19.6,64.5,,,,,,,,,,0.0,0.0,0.0,1.0,0.0,0.0,0.0,0.0,0.0,0.0
750,0.03,0.45,0.78,0.013,0.01,,,,,,,,336.0,140.0,95.0,90.0,,,60.0,10.0,20.0,180.0,23.0,1.0,1.0,1.0,250.0,0.0,0.0,408.0,,,,,,,,,,,,,0.0,0.0,0.0,1.0,0.0,0.0,0.0,0.0,0.0,0.0
780,0.059,0.33,1.09,0.008,0.01,,,,,,,,310.0,100.0,64.0,70.0,,,50.0,10.0,50.0,180.0,23.0,1.0,1.0,1.0,250.0,0.0,0.0,430.0,,,,,,,,,,,,,0.0,0.0,0.0,1.0,0.0,0.0,0.0,0.0,0.0,0.0
810,0.088,0.37,1.59,0.011,0.01,,,,,,,,491.0,120.0,77.0,30.0,,,50.0,50.0,40.0,180.0,23.0,1.0,1.0,1.0,250.0,0.0,0.0,478.0,,,,,,,,,,,,,0.0,0.0,0.0,1.0,0.0,0.0,0.0,0.0,0.0,0.0
840,0.11,0.36,2.18,0.008,0.011,,,,,,,,342.0,120.0,74.0,30.0,,,60.0,70.0,80.0,180.0,23.0,1.0,1.0,1.0,250.0,0.0,0.0,617.0,,,,,,,,,,,,,0.0,0.0,0.0,1.0,0.0,0.0,0.0,0.0,0.0,0.0
870,0.075,0.35,1.09,0.006,0.008,,1.22,,,,,,424.0,52.0,87.0,,,,,,,170.0,21.0,1.0,1.0,1.0,200.0,580.0,2.0,,,,,-60.0,100.0,,,,,,,,0.0,0.0,0.0,1.0,0.0,0.0,0.0,0.0,0.0,0.0
900,0.08,0.62,1.85,0.013,0.017,0.45,0.05,0.01,0.01,0.81,,,152.0,220.0,52.0,240.0,10.0,,,,,700.0,32.0,1.0,1.0,4.8,200.0,0.0,0.0,504.0,743.0,27.0,46.0,18.0,35.0,,,,,,,,0.0,0.0,0.0,0.0,0.0,0.0,1.0,0.0,0.0,0.0
930,0.08,0.49,0.9,0.014,0.029,0.0,0.05,0.0,0.0,0.0,,,,50.0,170.0,108.0,,0.0,0.0,,0.0,,,1.0,1.0,1.9,150.0,600.0,2.1,,,,,,,,,,,,,,0.0,0.0,0.0,1.0,0.0,0.0,0.0,0.0,0.0,0.0
960,0.08,0.31,1.67,0.017,0.017,,,0.03,0.01,0.25,,,502.0,,82.0,,,,,,,625.0,75.36,1.0,1.0,4.6,200.0,0.0,0.0,391.0,522.0,30.0,64.0,,,,,,,,,,0.0,0.0,0.0,0.0,0.0,0.0,0.0,0.0,0.0,1.0
990,0.082,0.18,0.75,0.014,0.02,,,0.02,0.005,0.22,,,381.0,,109.0,,,,,,,625.0,72.24,1.0,1.0,4.4,200.0,0.0,0.0,349.0,456.0,36.0,72.0,,,,,,,,,,0.0,0.0,0.0,0.0,0.0,0.0,0.0,0.0,0.0,1.0
1020,0.12,0.27,1.46,0.014,0.026,,,0.48,0.01,0.3,,,365.0,,77.0,,,,,,,625.0,72.24,1.0,1.0,4.4,200.0,0.0,0.0,689.0,689.0,34.0,69.0,,,,,,,,,,0.0,0.0,0.0,0.0,0.0,0.0,0.0,0.0,0.0,1.0
1050,0.051,0.32,1.8,0.006,0.012,,,,,,,,,,,,,,,,,,,1.0,1.0,1.0,200.0,250.0,14.0,507.0,587.0,29.2,76.9,,,,,,,,,,0.0,0.0,0.0,1.0,0.0,0.0,0.0,0.0,0.0,0.0
1080,0.12,0.25,1.26,0.01,0.013,0.06,0.03,0.145,0.002,,,,262.0,110.0,119.0,,20.0,160.0,,,,850.0,35.0,1.0,1.0,7.9,300.0,0.0,0.0,529.0,612.0,,61.0,,,,,,,,,,0.0,0.0,0.0,0.0,0.0,0.0,1.0,0.0,0.0,0.0
1110,0.12,0.34,1.67,0.024,0.03,0.053,0.06,0.005,0.115,0.06,,,,60.0,,160.0,,50.0,50.0,,,850.0,38.0,1.0,1.0,7.6,300.0,0.0,0.0,521.0,,30.0,60.0,,,,,,,,,,0.0,0.0,0.0,0.0,0.0,0.0,1.0,0.0,0.0,0.0
1140,0.1,0.35,1.54,0.009,0.016,0.06,0.049,0.18,0.057,0.11,,,420.0,50.0,138.0,160.0,,50.0,,,,650.0,33.0,1.0,1.0,3.3,300.0,0.0,0.0,556.0,704.0,25.0,58.0,,,,,,,,,,0.0,0.0,0.0,0.0,0.0,0.0,1.0,0.0,0.0,0.0
1170,0.09,0.37,1.03,0.004,0.01,0.05,8.8,1.03,0.25,0.01,0.01,,470.0,39.2166,370.0,72.3135,,800.0,,,,180.0,23.0,1.0,1.0,1.3,,720.0,2.0,,,,,,,,,,,,,,0.0,0.0,0.0,1.0,0.0,0.0,0.0,0.0,0.0,0.0
1200,0.06,0.32,1.23,0.000926486,0.002,1.01,8.4,0.89,0.22,0.00922,0.00527839,,380.0,53.0271,80.0,49.0536,,300.0,,,,163.0,25.0,1.0,1.0,1.2,,740.0,2.0,,,,,,,,,,,,,,0.0,0.0,0.0,1.0,0.0,0.0,0.0,0.0,0.0,0.0
1230,0.12,0.24,0.53,0.001,0.01,0.13,8.61,1.03,0.2,0.09,0.016,0.0550345,,20.0,430.0,0.013,0.0307719,,30.0,50.0,,285.0,28.5,1.0,1.0,1.3,177.0,746.0,4.0,654.0,767.0,20.0,62.0,,,,,,,,,,0.0,1.0,0.0,0.0,0.0,0.0,0.0,0.0,0.0,0.0
1260,0.11,0.14,0.73,0.002,0.005,,2.3,1.03,0.27,,,,254.0,,26.0,,,200.0,,,,500.0,29.0,0.0,0.0,2.9,200.0,690.0,8.0,,,,,-20.0,18.0,,,,,,,,0.0,0.0,0.0,0.0,0.0,0.0,1.0,0.0,0.0,0.0
1290,0.084,0.415,1.24,0.011,0.015,0.05,0.037,0.385,,0.105,,,480.0,,86.0,,,,60.0,150.0,5.0,,,1.0,1.0,2.4,100.0,550.0,1.83,,,,,,,,-51.0,,,,,,0.0,0.0,0.0,0.0,0.0,0.0,1.0,0.0,0.0,0.0
1320,0.048,0.13,1.06,0.014,0.016,0.23,2.02,1.3,0.02,,,,768.0,,266.0,,,,0.008,0.03,0.008,300.0,28.0,1.0,1.0,1.96,150.0,690.0,10.0,,,,,-70.0,6.0,,,,,,,,1.0,0.0,0.0,0.0,0.0,0.0,0.0,0.0,0.0,0.0
1350,0.047,0.42,1.0,0.015,0.016,0.17,2.29,1.04,0.018,,,,695.0,,165.0,,,,0.008,0.034,0.008,300.0,28.0,1.0,1.0,2.08,150.0,690.0,10.0,,,,,-20.0,22.0,,,,,,,,1.0,0.0,0.0,0.0,0.0,0.0,0.0,0.0,0.0,0.0
1380,0.055,0.37,0.82,0.021,0.008,0.086,2.5,0.99,0.000775366,0.51,,,694.0,50.0,160.0,130.0,,,50.0,50.0,9.0,,,1.0,1.0,3.6,177.0,704.0,4.5,457.0,569.0,25.8,67.0,,,,,,,,,,0.0,0.0,0.0,0.0,0.0,0.0,0.0,0.0,0.0,1.0
1410,0.09,0.3,1.25,0.02,0.016,,2.0,1.1,,,,,,,,,,,,,,150.0,37.5,1.0,1.0,1.0,300.0,690.0,3.0,,,,,,,240.0,,,,,,,0.0,0.0,0.0,1.0,0.0,0.0,0.0,0.0,0.0,0.0
1440,0.093,0.32,0.86,0.01,0.018,0.0,0.0,0.0,0.0,0.0,0.0,0.0,236.0,,54.0,180.0,,0.0,,,,550.0,30.0,,1.0,2.475,250.0,200.0,1.0,388.0,482.0,31.8,75.0,,,,,,,,,,0.0,0.0,0.0,0.0,0.0,0.0,1.0,0.0,0.0,0.0
1470,0.068,0.9,1.2,0.016,0.024,0.0,0.0,0.0,0.0,0.0,0.0,0.0,789.0,,27.0,270.0,,0.0,,,,450.0,30.0,,1.0,2.025,250.0,200.0,1.0,490.0,581.0,28.0,70.0,,,,,,,,,,0.0,0.0,0.0,0.0,0.0,0.0,1.0,0.0,0.0,0.0
1500,0.07,0.31,0.66,0.006,0.008,0.0,0.0,0.24,0.000237548,0.0,,,430.0,5.0,79.0,0.191278,0.687525,2.16945,,,,,,,,1.0,200.0,250.0,14.0,,,,,-61.0,100.0,,,,,,,,0.0,0.0,0.0,1.0,0.0,0.0,0.0,0.0,0.0,0.0
1530,0.063,0.31,0.65,0.006,0.009,0.88,0.0,0.0,4.15695e-05,0.0,,,472.0,38.0,85.0,4.94874,2.51922,2.0193,,,,,,,,1.0,200.0,250.0,14.0,,,,,-63.0,100.0,,,,,,,,0.0,0.0,0.0,1.0,0.0,0.0,0.0,0.0,0.0,0.0
1560,0.064,0.3,0.63,0.007,0.007,0.0,0.0,0.0,0.000473554,1.05,,,456.0,42.0,65.0,1.22001,0.053807,4.23912,,,,,,,,1.0,200.0,250.0,14.0,,,,,-58.0,100.0,,,,,,,,0.0,0.0,0.0,1.0,0.0,0.0,0.0,0.0,0.0,0.0
1590,0.075,0.28,1.48,0.007,0.005,0.0,1.55,0.0,8.45993e-05,0.0,,,466.0,5.0,86.0,1.27886,2.84934,3.07987,,,,,,,,1.0,200.0,250.0,14.0,,,,,6.0,100.0,,,,,,,,0.0,0.0,0.0,1.0,0.0,0.0,0.0,0.0,0.0,0.0
1620,0.075,0.26,1.46,0.008,0.007,0.0,0.0,0.5,3.77032,0.0,,,429.0,31.0,86.0,4.20113,1.88015,1.79071,,,,,,,,1.0,200.0,250.0,14.0,,,,,-56.0,100.0,,,,,,,,0.0,0.0,0.0,1.0,0.0,0.0,0.0,0.0,0.0,0.0
1650,0.092,0.35,0.9,0.008,0.016,0.54,8.4,0.97,0.17,,,,426.0,,99.0,,,500.0,,,,450.0,30.0,,1.0,2.0,200.0,760.0,2.0,832.0,,,,,,,,,,,,,0.0,0.0,0.0,0.0,0.0,0.0,1.0,0.0,0.0,0.0
1651,0.18,0.39,0.88,0.008,0.017,0.18,10.2,0.94,0.28,,,,327.0,,103.0,,,34.3916,,,,450.0,30.0,,1.0,2.0,200.0,760.0,2.0,,,,,,,,,,,,,,0.0,0.0,0.0,0.0,0.0,0.0,1.0,0.0,0.0,0.0