File: table_with_imputations.csv
Manganese concentration / (weight%),Chromium concentration / (weight%),Current / A,Vanadium concentration / (weight%),Voltage / V,weld_MMA,Post weld heat treatment temperature / Â°C,Niobium concentration / parts per million by weight,AC or DC,weld_SA,Nitrogen concentration / parts per million by weight,Electrode positive or negative,Phosphorus concentration / (weight%),Carbon concentration / (weight%),Sulphur concentration / (weight%),Yield strength / MPa,Heat input / kJmm-1,Molybdenum concentration / (weight%)
0.65,2.97274,170.0,0.036598,21.0,1,250.0,257.219,1,0,197.265,1.0,0.012,0.037,0.008,392.0,1.0,0.369546
1.01,4.02,170.0,0.0212156,21.0,1,580.0,295.231,1,0,266.82,1.0,0.011,0.041,0.006,426.0,1.0,0.765622
1.83,4.30046,170.0,-0.0042587,21.0,1,0.0,292.204,1,0,205.638,1.0,0.012,0.053,0.007,,1.0,-0.143211
0.65,3.40394,170.0,-0.0756605,21.0,1,580.0,493.924,1,0,289.287,1.0,0.011,0.037,0.009,482.0,1.0,0.773818
1.48,-1.3774,170.0,-0.0276626,21.0,1,0.0,182.727,1,0,25.7842,1.0,0.006,0.076,0.007,504.0,1.0,-0.0712949
1.36,1.87622,170.0,0.113073,21.0,1,0.0,36.0941,1,0,57.0,1.0,0.011,0.076,0.005,,1.0,0.137435
1.36,0.475334,170.0,0.0372236,21.0,1,0.0,37.7955,1,0,68.0,1.0,0.009,0.069,0.007,,1.0,-0.227668
1.3,-0.0476135,170.0,-0.000933538,21.0,1,0.0,234.932,1,0,48.0,1.0,0.008,0.076,0.005,,1.0,0.104352
1.36,-2.04379,170.0,-0.160775,21.0,1,0.0,165.248,1,0,44.0,1.0,0.008,0.069,0.005,,1.0,-0.253503
1.33,3.12914,170.0,0.0879902,21.0,1,250.0,38.8763,1,0,57.0,1.0,0.008,0.072,0.006,467.0,1.0,0.484158
1.49,-0.507184,170.0,-0.0173331,21.0,1,250.0,211.271,1,0,77.0,1.0,0.005,0.069,0.004,535.0,1.0,-0.00558998
1.41,-1.18613,170.0,-0.0242267,21.0,1,250.0,94.4602,1,0,58.0,1.0,0.005,0.069,0.005,561.0,1.0,0.331853
1.04,9.02,180.0,0.24,34.0,1,750.0,620.0,1,0,480.0,1.0,0.013,0.091,0.007,642.0,1.0,1.01
1.04,8.98,180.0,0.22,34.0,1,750.0,560.0,1,0,160.0,1.0,0.013,0.086,0.008,609.0,1.0,1.01
1.43,0.0,170.0,0.0635825,21.0,1,0.0,122.627,1,0,241.449,1.0,0.014,0.044,0.007,,1.0,-0.163379
0.6,0.51,170.0,-0.0526368,21.0,1,0.0,222.187,1,0,79.9108,1.0,0.01,0.04,0.006,,1.0,0.243393
1.37,1.08,170.0,0.0527879,21.0,1,250.0,-31.0729,1,0,123.961,1.0,0.013,0.048,0.008,626.0,1.0,0.514864
1.72,2.36,170.0,0.0313377,21.0,1,580.0,247.451,1,0,118.198,1.0,0.014,0.054,0.007,697.0,1.0,0.567992
1.39,2.93942,170.0,-0.0355224,21.0,1,0.0,323.384,1,0,88.1131,1.0,0.009,0.078,0.007,,1.0,0.0741694
1.42,4.93487,170.0,0.171633,21.0,1,580.0,212.954,1,0,265.451,1.0,0.009,0.08,0.006,,1.0,0.456195
1.3,0.783513,170.0,-0.0833439,21.0,1,0.0,-13.5503,1,0,167.325,1.0,0.008,0.076,0.005,,1.0,-0.147669
0.63,-0.13819,170.0,0.021,21.0,1,250.0,5.0,1,0,78.0,1.0,0.006,0.071,0.007,436.0,1.0,0.129747
1.01,2.52703,170.0,0.0215,21.0,1,0.0,5.0,1,0,75.0,1.0,0.007,0.076,0.007,,1.0,0.268984
1.22,1.73764,170.0,0.019,21.0,1,580.0,5.0,1,0,85.0,1.0,0.006,0.072,0.008,455.0,1.0,0.648734
1.72,0.224181,170.0,0.041,21.0,1,250.0,5.0,1,0,74.0,1.0,0.008,0.077,0.007,578.0,1.0,0.245419
0.62,0.225003,170.0,0.0003,21.0,1,0.0,220.0,1,0,85.0,1.0,0.005,0.075,0.007,,1.0,0.32339
1.0,1.84049,170.0,0.0005,21.0,1,580.0,255.0,1,0,86.0,1.0,0.006,0.074,0.007,492.0,1.0,0.67791
1.39,1.96078,170.0,0.0004,21.0,1,250.0,455.0,1,0,99.0,1.0,0.007,0.077,0.007,586.0,1.0,0.258867
1.77,2.38372,170.0,0.0004,21.0,1,0.0,450.0,1,0,97.0,1.0,0.009,0.077,0.008,,1.0,0.228874
1.56,1.23121,180.0,-0.0959418,34.0,1,250.0,355.04,1,0,90.0,1.0,0.01,0.068,0.006,494.0,1.0,0.00597611
1.39,4.60912,170.0,0.0672927,21.0,1,580.0,331.858,1,0,224.107,1.0,0.007,0.045,0.005,,1.0,1.01721
0.63,1.59064,170.0,0.00297015,21.0,1,580.0,-165.103,1,0,89.9834,1.0,0.007,0.058,0.007,,1.0,0.641177
1.36,1.68607,170.0,0.128865,21.0,1,580.0,-95.6991,1,0,68.7026,1.0,0.008,0.066,0.007,,1.0,0.278138
1.05,0.779103,170.0,-0.0239007,21.0,1,580.0,38.9911,1,0,95.9919,1.0,0.008,0.095,0.007,,1.0,0.024688
1.69,2.4171,170.0,0.0985954,21.0,1,580.0,112.77,1,0,24.3428,1.0,0.008,0.089,0.007,,1.0,0.657764
1.02,8.41286,170.0,0.231434,21.0,1,580.0,647.612,1,0,308.999,1.0,0.007,0.147,0.007,,1.0,0.484367
1.45,-1.20351,170.0,-0.0398862,21.0,0,0.0,-54.5546,1,0,90.0,1.0,0.005,0.074,0.005,,1.0,-0.0731856
1.48,-2.76501,170.0,-0.0925159,21.0,0,0.0,-106.279,1,0,75.0,1.0,0.006,0.07,0.005,,1.0,-0.133078
1.64,1.2213,170.0,-0.0407479,21.0,0,0.0,205.52,1,0,102.0,1.0,0.006,0.07,0.005,,1.0,0.29016
0.67,3.67419,170.0,0.0497548,21.0,1,250.0,231.634,1,0,70.0,1.0,0.007,0.076,0.009,410.0,1.0,-0.0964563
1.05,0.976952,170.0,0.0625796,21.0,1,0.0,229.604,1,0,82.0,1.0,0.007,0.075,0.008,,1.0,-0.293644
1.35,3.37919,170.0,0.171442,21.0,1,580.0,464.597,1,0,78.0,1.0,0.007,0.079,0.008,413.0,1.0,0.33195
1.82,0.870086,170.0,0.0439839,21.0,1,250.0,241.773,1,0,81.0,1.0,0.007,0.079,0.006,536.0,1.0,0.52892
1.5,-0.938583,170.0,-0.059848,21.0,1,0.0,-55.3881,1,0,155.0,1.0,0.006,0.07,0.004,535.0,1.0,0.305807
1.21,0.05,170.0,0.01,24.0,1,0.0,74.4852,1,0,143.0,1.0,0.024,0.05,0.013,665.0,2.1,0.34
1.03,9.08,180.0,0.19,34.0,1,750.0,430.0,1,0,515.0,1.0,0.012,0.093,0.008,551.0,1.0,0.98
0.92,-0.562588,170.0,-0.0592341,21.0,1,250.0,-217.559,1,0,114.0,1.0,0.019,0.05,0.011,514.0,1.8,0.51
0.78,0.282274,180.0,-0.0877244,23.0,1,0.0,-56.7755,1,0,95.0,1.0,0.01,0.03,0.013,,1.0,-0.187001
2.05,-0.653524,180.0,-0.12567,23.0,1,0.0,113.78,1,0,119.0,1.0,0.01,0.032,0.002,506.0,1.0,-0.477596
1.09,-1.98098,180.0,-0.101104,23.0,1,0.0,27.4523,1,0,64.0,1.0,0.01,0.059,0.008,,1.0,-0.252351
0.78,-1.13914,180.0,-0.0248176,23.0,1,0.0,80.9478,1,0,36.0,1.0,0.01,0.09,0.013,,1.0,0.244014
2.25,1.33602,180.0,0.0113232,23.0,1,0.0,169.183,1,0,88.0,1.0,0.014,0.098,0.008,541.0,1.0,0.149748
1.35,0.809302,180.0,0.0242681,23.0,1,0.0,-402.064,1,0,55.0,1.0,0.014,0.12,0.01,,1.0,0.117106
1.12,0.12,280.0,0.015,30.0,0,200.0,20.0,1,0,73.0,1.0,0.015,0.058,0.013,,2.8,0.300396
1.06,0.027,170.0,0.102567,21.0,1,580.0,247.187,1,0,63.0,1.0,0.009,0.068,0.006,,1.0,0.863808
0.75,0.5,680.0,-0.0119243,34.0,0,0.0,320.0,1,1,80.0,1.0,0.01,0.05,0.006,576.0,3.3,0.23
1.84,0.05,700.0,0.01,32.0,0,0.0,224.008,1,1,54.0,1.0,0.016,0.08,0.013,507.0,4.8,0.01
0.93,0.0,421.505,0.004,43.9385,1,600.0,120.0,1,0,160.0,1.0,0.058,0.09,0.011,420.9,2.5,0.02
1.1,0.0,238.269,0.01,18.2199,1,600.0,0.0,1,0,190.0,1.0,0.02,0.07,0.011,,1.9,0.0
1.2,0.0,371.352,0.0,42.0289,0,600.0,60.0,1,1,89.0,1.0,0.024,0.1,0.013,390.1,1.7,0.0
1.67,-0.634076,625.0,0.01,75.36,0,0.0,-85.9129,1,0,82.0,1.0,0.017,0.08,0.017,391.0,4.6,0.03
1.34,0.949085,625.0,0.01,75.36,0,0.0,176.1,1,0,86.0,1.0,0.02,0.08,0.023,,4.6,0.43
0.75,1.91258,625.0,0.005,72.24,0,0.0,-124.249,1,0,109.0,1.0,0.02,0.082,0.014,,4.4,0.02
1.29,0.361591,625.0,0.01,72.24,0,0.0,306.822,1,0,61.0,1.0,0.017,0.098,0.017,,4.4,0.01
1.32,0.04,550.0,0.0255849,28.0,0,0.0,160.31,1,1,95.0,1.0,0.017,0.094,0.009,429.0,3.6,0.288942
1.42,2.6393,38.2665,0.0732347,-5.7741,1,250.0,76.2384,1,0,106.834,1.0,0.009,0.05,0.007,511.0,0.6,0.473909
1.37,3.40223,274.727,0.11917,41.4065,1,250.0,382.657,1,0,177.85,1.0,0.012,0.042,0.007,438.0,2.2,0.591404
1.3,0.05,850.0,0.0873794,35.0,0,0.0,160.0,1,1,99.0,1.0,0.016,0.115,0.012,473.0,7.9,0.005
0.58,1.16334,170.0,-0.146881,21.0,1,0.0,152.274,1,0,91.264,1.0,0.012,0.039,0.008,411.0,1.0,-0.391185
1.57,0.059,650.0,0.122,33.0,0,0.0,60.0,1,1,72.6,1.0,0.028,0.15,0.026,661.0,3.3,0.11
1.51,0.07,650.0,0.036,33.0,0,0.0,50.0,1,1,99.6812,1.0,0.013,0.12,0.006,592.0,3.3,0.27
1.44,0.056,650.0,0.105,33.0,0,0.0,50.0,1,1,145.0,1.0,0.012,0.11,0.008,577.0,3.3,0.01
1.55,-0.872761,650.0,0.09,33.0,0,600.0,0.0,1,1,7.49652,1.0,0.0449843,0.11,0.029,631.0,3.3,0.0
0.99,9.5,201.0,0.19,22.0,1,0.0,100.0,1,0,450.0,1.0,0.021,0.09,0.012,,1.4,0.96
1.0,8.3,116.0,0.24,23.0,1,720.0,340.0,1,0,250.0,1.0,0.006,0.07,0.002,,1.3,0.93
1.23,8.4,163.0,0.22,25.0,1,740.0,300.0,1,0,80.0,1.0,0.002,0.06,-0.000368057,,1.2,0.89
0.91,8.9,146.0,0.21,22.0,1,760.0,900.0,1,0,410.0,1.0,0.008,0.1,0.004,,1.1,0.98
0.55,2.68,500.0,0.193434,32.0,0,690.0,-16.7026,1,0,127.69,1.0,0.013,0.1,0.009,492.0,2.0,1.05
0.53,2.7,500.0,0.0807708,32.0,0,690.0,310.259,1,0,59.8622,1.0,0.007,0.1,0.007,,2.0,1.03
1.03,2.3,500.0,0.27,29.0,0,690.0,200.0,0,1,22.0,0.0,0.006,0.12,0.002,,2.9,1.03
1.32,2.27,500.0,0.32,29.0,0,690.0,200.0,0,1,127.0,0.0,0.008,0.11,0.002,,2.9,1.0
0.54,2.2,362.341,0.0184319,42.7768,0,690.0,-3.16322,1,1,66.0,1.0,0.008,0.084,0.005,,2.4,1.05
0.98,2.07,300.0,0.015,28.0,0,690.0,9.1871,1,0,97.0,1.0,0.01,0.07,0.01,,2.04,1.07
0.86,2.01,300.0,0.02,20.0,0,690.0,285.972,1,0,123.0,1.0,0.017,0.043,0.011,505.0,2.08,0.93
1.33,2.39,300.0,0.015,28.0,0,690.0,188.41,1,0,236.0,1.0,0.015,0.042,0.012,,1.96,1.21
1.11,2.3,290.0,0.018,29.0,0,690.0,-56.2382,1,0,113.0,1.0,0.024,0.074,0.009,,2.0,0.96
1.24,2.17,290.0,0.18,29.0,0,690.0,-81.584,1,0,269.0,1.0,0.25,0.062,0.14,,2.0,0.98
0.27,2.2,150.0,0.140176,37.5,1,690.0,138.963,1,0,98.3569,1.0,0.016,0.061,0.022,537.0,1.0,1.2
1.1,2.4,150.0,0.162627,37.5,1,690.0,276.426,1,0,80.5416,1.0,0.02,0.09,0.013,648.0,1.0,0.8
0.8,2.3,525.0,0.0635552,30.0,0,700.0,371.428,1,1,157.389,1.0,0.01,0.08,0.01,,1.75,1.05
0.86,0.0,550.0,0.0,30.0,0,200.0,0.0,1,1,54.0,1.0,0.018,0.093,0.01,388.0,2.475,0.0
1.24,0.0,550.0,0.0,30.0,0,200.0,0.0,1,1,61.0,1.0,0.018,0.078,0.012,394.0,2.475,0.0
1.12,0.0,550.0,0.0,30.0,0,200.0,0.0,1,1,26.0,1.0,0.021,0.066,0.017,455.0,2.475,0.0
0.64,0.0,154.728,0.000362161,23.9098,1,250.0,2.24687,1,0,63.0,1.0,0.007,0.073,0.008,,1.0,0.0
0.66,0.0,226.497,-0.058686,17.1718,1,250.0,126.824,1,0,75.0,1.0,0.007,0.073,0.007,,1.0,0.5
0.62,0.0,287.723,-0.129405,26.7508,1,250.0,-94.9785,1,0,72.0,1.0,0.009,0.065,0.007,439.0,1.0,0.0
0.65,0.0,234.569,-0.0422572,14.1833,1,250.0,280.101,1,0,72.0,1.0,0.007,0.067,0.007,,1.0,0.0
0.62,1.6,237.093,-0.0564806,24.589,1,250.0,261.037,1,0,100.0,1.0,0.005,0.078,0.007,,1.0,0.0
1.39,0.0,122.998,0.0310863,9.57476,1,250.0,102.651,1,0,76.0,1.0,0.007,0.073,0.007,470.0,1.0,0.0
1.41,0.0,106.094,-0.058814,9.24267,1,250.0,68.7751,1,0,85.0,1.0,0.006,0.076,0.008,,1.0,1.11
1.41,0.0,258.885,0.0417598,34.7464,1,250.0,-60.7253,1,0,89.0,1.0,0.008,0.075,0.006,,1.0,0.0
1.49,0.0,197.173,0.124608,34.4827,1,250.0,-67.618,1,0,89.0,1.0,0.008,0.076,0.008,560.0,1.0,0.25
1.48,1.96,126.944,0.0608333,19.3324,1,250.0,-37.1053,1,0,82.0,1.0,0.01,0.078,0.007,,1.0,0.0
0.88,8.4,450.0,0.19,30.0,0,760.0,1000.0,1,1,394.0,1.0,0.017,0.088,0.008,822.0,2.0,0.94
0.88,10.2,450.0,0.28,30.0,0,760.0,669.834,1,1,103.0,1.0,0.017,0.18,0.008,,2.0,0.94